# Al2O3 Experimental X-ray Diffraction
# 2theta  Intensity
5.000	21.000
5.010	21.000
5.020	15.000
5.030	34.000
5.040	21.000
5.050	32.000
5.060	17.000
5.070	14.000
5.080	16.000
5.090	21.000
5.100	27.000
5.110	27.000
5.120	36.000
5.130	27.000
5.140	25.000
5.150	23.000
5.160	21.000
5.170	26.000
5.180	23.000
5.190	20.000
5.200	27.000
5.210	21.000
5.220	29.000
5.230	19.000
5.240	23.000
5.250	24.000
5.260	31.000
5.270	27.000
5.280	25.000
5.290	32.000
5.300	27.000
5.310	30.000
5.320	13.000
5.330	26.000
5.340	22.000
5.350	21.000
5.360	18.000
5.370	36.000
5.380	25.000
5.390	27.000
5.400	29.000
5.410	19.000
5.420	27.000
5.430	27.000
5.440	24.000
5.450	22.000
5.460	20.000
5.470	26.000
5.480	22.000
5.490	24.000
5.500	23.000
5.510	26.000
5.520	24.000
5.530	32.000
5.540	24.000
5.550	18.000
5.560	22.000
5.570	20.000
5.580	23.000
5.590	23.000
5.600	31.000
5.610	31.000
5.620	31.000
5.630	26.000
5.640	22.000
5.650	21.000
5.660	29.000
5.670	26.000
5.680	21.000
5.690	23.000
5.700	34.000
5.710	29.000
5.720	24.000
5.730	35.000
5.740	22.000
5.750	21.000
5.760	25.000
5.770	20.000
5.780	39.000
5.790	14.000
5.800	23.000
5.810	21.000
5.820	20.000
5.830	22.000
5.840	28.000
5.850	25.000
5.860	26.000
5.870	28.000
5.880	25.000
5.890	30.000
5.900	25.000
5.910	26.000
5.920	29.000
5.930	35.000
5.940	28.000
5.950	29.000
5.960	29.000
5.970	22.000
5.980	30.000
5.990	30.000
6.000	16.000
6.010	21.000
6.020	20.000
6.030	31.000
6.040	24.000
6.050	20.000
6.060	31.000
6.070	22.000
6.080	15.000
6.090	26.000
6.100	28.000
6.110	21.000
6.120	22.000
6.130	32.000
6.140	31.000
6.150	19.000
6.160	24.000
6.170	20.000
6.180	19.000
6.190	18.000
6.200	25.000
6.210	14.000
6.220	19.000
6.230	18.000
6.240	19.000
6.250	16.000
6.260	24.000
6.270	25.000
6.280	22.000
6.290	20.000
6.300	20.000
6.310	20.000
6.320	19.000
6.330	15.000
6.340	22.000
6.350	16.000
6.360	16.000
6.370	20.000
6.380	27.000
6.390	16.000
6.400	22.000
6.410	17.000
6.420	24.000
6.430	19.000
6.440	21.000
6.450	16.000
6.460	22.000
6.470	19.000
6.480	14.000
6.490	30.000
6.500	19.000
6.510	18.000
6.520	18.000
6.530	22.000
6.540	19.000
6.550	19.000
6.560	23.000
6.570	20.000
6.580	19.000
6.590	22.000
6.600	27.000
6.610	14.000
6.620	21.000
6.630	25.000
6.640	18.000
6.650	26.000
6.660	25.000
6.670	23.000
6.680	13.000
6.690	9.000
6.700	12.000
6.710	21.000
6.720	13.000
6.730	21.000
6.740	19.000
6.750	18.000
6.760	15.000
6.770	16.000
6.780	19.000
6.790	25.000
6.800	17.000
6.810	17.000
6.820	23.000
6.830	11.000
6.840	18.000
6.850	12.000
6.860	24.000
6.870	17.000
6.880	13.000
6.890	20.000
6.900	13.000
6.910	18.000
6.920	18.000
6.930	16.000
6.940	18.000
6.950	17.000
6.960	17.000
6.970	17.000
6.980	18.000
6.990	16.000
7.000	16.000
7.010	17.000
7.020	17.000
7.030	17.000
7.040	27.000
7.050	15.000
7.060	15.000
7.070	15.000
7.080	14.000
7.090	21.000
7.100	20.000
7.110	25.000
7.120	16.000
7.130	13.000
7.140	17.000
7.150	22.000
7.160	22.000
7.170	13.000
7.180	25.000
7.190	21.000
7.200	21.000
7.210	11.000
7.220	21.000
7.230	13.000
7.240	10.000
7.250	17.000
7.260	25.000
7.270	13.000
7.280	19.000
7.290	19.000
7.300	26.000
7.310	17.000
7.320	21.000
7.330	10.000
7.340	13.000
7.350	16.000
7.360	18.000
7.370	9.000
7.380	22.000
7.390	17.000
7.400	13.000
7.410	20.000
7.420	22.000
7.430	18.000
7.440	13.000
7.450	21.000
7.460	17.000
7.470	25.000
7.480	17.000
7.490	17.000
7.500	20.000
7.510	25.000
7.520	22.000
7.530	24.000
7.540	22.000
7.550	16.000
7.560	15.000
7.570	10.000
7.580	22.000
7.590	20.000
7.600	19.000
7.610	14.000
7.620	19.000
7.630	16.000
7.640	17.000
7.650	13.000
7.660	17.000
7.670	11.000
7.680	26.000
7.690	21.000
7.700	15.000
7.710	26.000
7.720	17.000
7.730	22.000
7.740	16.000
7.750	18.000
7.760	15.000
7.770	19.000
7.780	18.000
7.790	15.000
7.800	20.000
7.810	14.000
7.820	18.000
7.830	23.000
7.840	30.000
7.850	22.000
7.860	20.000
7.870	21.000
7.880	18.000
7.890	10.000
7.900	23.000
7.910	21.000
7.920	20.000
7.930	12.000
7.940	18.000
7.950	18.000
7.960	22.000
7.970	21.000
7.980	22.000
7.990	21.000
8.000	20.000
8.010	18.000
8.020	19.000
8.030	15.000
8.040	19.000
8.050	13.000
8.060	19.000
8.070	25.000
8.080	17.000
8.090	22.000
8.100	25.000
8.110	17.000
8.120	29.000
8.130	15.000
8.140	20.000
8.150	22.000
8.160	24.000
8.170	16.000
8.180	15.000
8.190	12.000
8.200	18.000
8.210	23.000
8.220	17.000
8.230	16.000
8.240	19.000
8.250	30.000
8.260	19.000
8.270	17.000
8.280	18.000
8.290	21.000
8.300	24.000
8.310	17.000
8.320	20.000
8.330	17.000
8.340	10.000
8.350	14.000
8.360	18.000
8.370	13.000
8.380	13.000
8.390	15.000
8.400	18.000
8.410	10.000
8.420	18.000
8.430	13.000
8.440	19.000
8.450	14.000
8.460	10.000
8.470	21.000
8.480	14.000
8.490	16.000
8.500	13.000
8.510	14.000
8.520	8.000
8.530	12.000
8.540	14.000
8.550	11.000
8.560	17.000
8.570	21.000
8.580	20.000
8.590	16.000
8.600	24.000
8.610	10.000
8.620	24.000
8.630	11.000
8.640	14.000
8.650	17.000
8.660	9.000
8.670	17.000
8.680	16.000
8.690	10.000
8.700	11.000
8.710	16.000
8.720	20.000
8.730	14.000
8.740	8.000
8.750	17.000
8.760	11.000
8.770	17.000
8.780	14.000
8.790	16.000
8.800	11.000
8.810	22.000
8.820	14.000
8.830	18.000
8.840	7.000
8.850	12.000
8.860	18.000
8.870	14.000
8.880	22.000
8.890	13.000
8.900	12.000
8.910	15.000
8.920	14.000
8.930	15.000
8.940	14.000
8.950	14.000
8.960	24.000
8.970	10.000
8.980	14.000
8.990	16.000
9.000	9.000
9.010	13.000
9.020	19.000
9.030	12.000
9.040	17.000
9.050	18.000
9.060	19.000
9.070	17.000
9.080	17.000
9.090	14.000
9.100	14.000
9.110	15.000
9.120	10.000
9.130	15.000
9.140	15.000
9.150	18.000
9.160	17.000
9.170	21.000
9.180	8.000
9.190	20.000
9.200	17.000
9.210	10.000
9.220	18.000
9.230	14.000
9.240	18.000
9.250	12.000
9.260	14.000
9.270	11.000
9.280	19.000
9.290	12.000
9.300	19.000
9.310	13.000
9.320	11.000
9.330	22.000
9.340	19.000
9.350	13.000
9.360	16.000
9.370	16.000
9.380	18.000
9.390	14.000
9.400	10.000
9.410	22.000
9.420	18.000
9.430	10.000
9.440	7.000
9.450	20.000
9.460	20.000
9.470	14.000
9.480	16.000
9.490	18.000
9.500	8.000
9.510	24.000
9.520	12.000
9.530	14.000
9.540	17.000
9.550	14.000
9.560	13.000
9.570	16.000
9.580	13.000
9.590	13.000
9.600	25.000
9.610	22.000
9.620	19.000
9.630	16.000
9.640	16.000
9.650	10.000
9.660	8.000
9.670	14.000
9.680	11.000
9.690	21.000
9.700	17.000
9.710	15.000
9.720	17.000
9.730	12.000
9.740	15.000
9.750	18.000
9.760	19.000
9.770	10.000
9.780	15.000
9.790	17.000
9.800	24.000
9.810	18.000
9.820	22.000
9.830	18.000
9.840	13.000
9.850	15.000
9.860	12.000
9.870	10.000
9.880	17.000
9.890	10.000
9.900	18.000
9.910	11.000
9.920	21.000
9.930	14.000
9.940	11.000
9.950	18.000
9.960	20.000
9.970	15.000
9.980	15.000
9.990	25.000
10.000	19.000
10.010	14.000
10.020	13.000
10.030	15.000
10.040	17.000
10.050	11.000
10.060	13.000
10.070	16.000
10.080	11.000
10.090	14.000
10.100	8.000
10.110	17.000
10.120	9.000
10.130	14.000
10.140	13.000
10.150	10.000
10.160	20.000
10.170	11.000
10.180	21.000
10.190	10.000
10.200	19.000
10.210	17.000
10.220	16.000
10.230	15.000
10.240	14.000
10.250	15.000
10.260	12.000
10.270	14.000
10.280	9.000
10.290	8.000
10.300	15.000
10.310	11.000
10.320	10.000
10.330	8.000
10.340	14.000
10.350	11.000
10.360	8.000
10.370	12.000
10.380	15.000
10.390	11.000
10.400	11.000
10.410	11.000
10.420	12.000
10.430	9.000
10.440	7.000
10.450	10.000
10.460	14.000
10.470	9.000
10.480	9.000
10.490	8.000
10.500	10.000
10.510	22.000
10.520	6.000
10.530	16.000
10.540	12.000
10.550	18.000
10.560	11.000
10.570	8.000
10.580	9.000
10.590	14.000
10.600	10.000
10.610	5.000
10.620	14.000
10.630	12.000
10.640	8.000
10.650	9.000
10.660	8.000
10.670	15.000
10.680	9.000
10.690	9.000
10.700	10.000
10.710	9.000
10.720	12.000
10.730	12.000
10.740	8.000
10.750	14.000
10.760	11.000
10.770	16.000
10.780	11.000
10.790	11.000
10.800	10.000
10.810	12.000
10.820	9.000
10.830	17.000
10.840	14.000
10.850	10.000
10.860	10.000
10.870	13.000
10.880	8.000
10.890	11.000
10.900	9.000
10.910	17.000
10.920	9.000
10.930	11.000
10.940	13.000
10.950	11.000
10.960	14.000
10.970	16.000
10.980	10.000
10.990	13.000
11.000	16.000
11.010	17.000
11.020	9.000
11.030	11.000
11.040	12.000
11.050	15.000
11.060	11.000
11.070	20.000
11.080	15.000
11.090	13.000
11.100	9.000
11.110	13.000
11.120	12.000
11.130	13.000
11.140	13.000
11.150	11.000
11.160	22.000
11.170	12.000
11.180	12.000
11.190	13.000
11.200	16.000
11.210	18.000
11.220	8.000
11.230	13.000
11.240	17.000
11.250	9.000
11.260	13.000
11.270	11.000
11.280	17.000
11.290	9.000
11.300	13.000
11.310	13.000
11.320	13.000
11.330	11.000
11.340	7.000
11.350	17.000
11.360	7.000
11.370	16.000
11.380	11.000
11.390	12.000
11.400	7.000
11.410	11.000
11.420	17.000
11.430	17.000
11.440	14.000
11.450	13.000
11.460	11.000
11.470	12.000
11.480	11.000
11.490	11.000
11.500	10.000
11.510	5.000
11.520	11.000
11.530	11.000
11.540	12.000
11.550	17.000
11.560	10.000
11.570	7.000
11.580	11.000
11.590	14.000
11.600	16.000
11.610	12.000
11.620	21.000
11.630	9.000
11.640	15.000
11.650	13.000
11.660	10.000
11.670	10.000
11.680	11.000
11.690	13.000
11.700	19.000
11.710	18.000
11.720	10.000
11.730	14.000
11.740	12.000
11.750	13.000
11.760	19.000
11.770	17.000
11.780	16.000
11.790	17.000
11.800	14.000
11.810	15.000
11.820	19.000
11.830	15.000
11.840	17.000
11.850	14.000
11.860	7.000
11.870	12.000
11.880	12.000
11.890	7.000
11.900	14.000
11.910	18.000
11.920	19.000
11.930	9.000
11.940	10.000
11.950	9.000
11.960	13.000
11.970	9.000
11.980	13.000
11.990	16.000
12.000	18.000
12.010	6.000
12.020	17.000
12.030	15.000
12.040	18.000
12.050	14.000
12.060	15.000
12.070	11.000
12.080	16.000
12.090	11.000
12.100	14.000
12.110	14.000
12.120	24.000
12.130	16.000
12.140	8.000
12.150	19.000
12.160	13.000
12.170	17.000
12.180	13.000
12.190	12.000
12.200	13.000
12.210	12.000
12.220	16.000
12.230	14.000
12.240	9.000
12.250	12.000
12.260	14.000
12.270	16.000
12.280	15.000
12.290	15.000
12.300	13.000
12.310	7.000
12.320	12.000
12.330	9.000
12.340	8.000
12.350	13.000
12.360	14.000
12.370	9.000
12.380	13.000
12.390	15.000
12.400	11.000
12.410	17.000
12.420	11.000
12.430	17.000
12.440	15.000
12.450	13.000
12.460	17.000
12.470	22.000
12.480	14.000
12.490	11.000
12.500	13.000
12.510	24.000
12.520	9.000
12.530	17.000
12.540	13.000
12.550	9.000
12.560	13.000
12.570	8.000
12.580	16.000
12.590	17.000
12.600	10.000
12.610	14.000
12.620	15.000
12.630	7.000
12.640	13.000
12.650	16.000
12.660	10.000
12.670	19.000
12.680	16.000
12.690	17.000
12.700	14.000
12.710	15.000
12.720	15.000
12.730	19.000
12.740	13.000
12.750	12.000
12.760	13.000
12.770	10.000
12.780	12.000
12.790	11.000
12.800	11.000
12.810	17.000
12.820	13.000
12.830	19.000
12.840	10.000
12.850	15.000
12.860	16.000
12.870	12.000
12.880	22.000
12.890	11.000
12.900	15.000
12.910	14.000
12.920	15.000
12.930	12.000
12.940	7.000
12.950	14.000
12.960	9.000
12.970	13.000
12.980	15.000
12.990	13.000
13.000	13.000
13.010	13.000
13.020	18.000
13.030	13.000
13.040	20.000
13.050	11.000
13.060	16.000
13.070	10.000
13.080	9.000
13.090	17.000
13.100	12.000
13.110	13.000
13.120	11.000
13.130	14.000
13.140	5.000
13.150	11.000
13.160	15.000
13.170	10.000
13.180	15.000
13.190	10.000
13.200	9.000
13.210	10.000
13.220	12.000
13.230	19.000
13.240	15.000
13.250	17.000
13.260	12.000
13.270	12.000
13.280	11.000
13.290	13.000
13.300	19.000
13.310	19.000
13.320	17.000
13.330	8.000
13.340	9.000
13.350	11.000
13.360	15.000
13.370	14.000
13.380	11.000
13.390	15.000
13.400	13.000
13.410	17.000
13.420	16.000
13.430	10.000
13.440	16.000
13.450	11.000
13.460	13.000
13.470	13.000
13.480	14.000
13.490	10.000
13.500	15.000
13.510	8.000
13.520	7.000
13.530	11.000
13.540	11.000
13.550	12.000
13.560	10.000
13.570	13.000
13.580	11.000
13.590	11.000
13.600	10.000
13.610	8.000
13.620	17.000
13.630	13.000
13.640	11.000
13.650	12.000
13.660	13.000
13.670	6.000
13.680	13.000
13.690	4.000
13.700	16.000
13.710	9.000
13.720	16.000
13.730	12.000
13.740	17.000
13.750	12.000
13.760	14.000
13.770	21.000
13.780	17.000
13.790	15.000
13.800	13.000
13.810	15.000
13.820	15.000
13.830	15.000
13.840	6.000
13.850	7.000
13.860	13.000
13.870	7.000
13.880	13.000
13.890	8.000
13.900	16.000
13.910	11.000
13.920	15.000
13.930	10.000
13.940	6.000
13.950	14.000
13.960	7.000
13.970	10.000
13.980	15.000
13.990	15.000
14.000	20.000
14.010	12.000
14.020	15.000
14.030	13.000
14.040	13.000
14.050	17.000
14.060	9.000
14.070	14.000
14.080	15.000
14.090	13.000
14.100	14.000
14.110	16.000
14.120	12.000
14.130	16.000
14.140	15.000
14.150	11.000
14.160	12.000
14.170	15.000
14.180	20.000
14.190	16.000
14.200	9.000
14.210	16.000
14.220	15.000
14.230	18.000
14.240	10.000
14.250	14.000
14.260	12.000
14.270	15.000
14.280	13.000
14.290	14.000
14.300	16.000
14.310	13.000
14.320	15.000
14.330	11.000
14.340	13.000
14.350	9.000
14.360	8.000
14.370	8.000
14.380	12.000
14.390	12.000
14.400	12.000
14.410	16.000
14.420	10.000
14.430	10.000
14.440	14.000
14.450	8.000
14.460	15.000
14.470	15.000
14.480	23.000
14.490	13.000
14.500	8.000
14.510	11.000
14.520	16.000
14.530	16.000
14.540	19.000
14.550	11.000
14.560	13.000
14.570	14.000
14.580	12.000
14.590	13.000
14.600	8.000
14.610	15.000
14.620	7.000
14.630	8.000
14.640	14.000
14.650	18.000
14.660	11.000
14.670	11.000
14.680	12.000
14.690	16.000
14.700	8.000
14.710	12.000
14.720	10.000
14.730	14.000
14.740	10.000
14.750	9.000
14.760	10.000
14.770	14.000
14.780	12.000
14.790	4.000
14.800	12.000
14.810	14.000
14.820	11.000
14.830	12.000
14.840	16.000
14.850	7.000
14.860	18.000
14.870	12.000
14.880	7.000
14.890	14.000
14.900	15.000
14.910	14.000
14.920	14.000
14.930	17.000
14.940	11.000
14.950	14.000
14.960	8.000
14.970	11.000
14.980	11.000
14.990	14.000
15.000	11.000
15.010	9.000
15.020	13.000
15.030	13.000
15.040	11.000
15.050	10.000
15.060	11.000
15.070	13.000
15.080	13.000
15.090	8.000
15.100	10.000
15.110	9.000
15.120	10.000
15.130	18.000
15.140	14.000
15.150	8.000
15.160	10.000
15.170	14.000
15.180	13.000
15.190	8.000
15.200	10.000
15.210	10.000
15.220	10.000
15.230	8.000
15.240	13.000
15.250	14.000
15.260	7.000
15.270	15.000
15.280	7.000
15.290	15.000
15.300	7.000
15.310	18.000
15.320	11.000
15.330	13.000
15.340	10.000
15.350	15.000
15.360	13.000
15.370	10.000
15.380	12.000
15.390	11.000
15.400	5.000
15.410	16.000
15.420	6.000
15.430	14.000
15.440	12.000
15.450	9.000
15.460	16.000
15.470	6.000
15.480	10.000
15.490	7.000
15.500	14.000
15.510	10.000
15.520	10.000
15.530	10.000
15.540	9.000
15.550	9.000
15.560	8.000
15.570	14.000
15.580	10.000
15.590	8.000
15.600	11.000
15.610	8.000
15.620	12.000
15.630	13.000
15.640	7.000
15.650	8.000
15.660	6.000
15.670	7.000
15.680	15.000
15.690	6.000
15.700	10.000
15.710	10.000
15.720	6.000
15.730	7.000
15.740	11.000
15.750	8.000
15.760	13.000
15.770	9.000
15.780	12.000
15.790	9.000
15.800	5.000
15.810	12.000
15.820	6.000
15.830	7.000
15.840	9.000
15.850	14.000
15.860	7.000
15.870	9.000
15.880	9.000
15.890	5.000
15.900	10.000
15.910	15.000
15.920	14.000
15.930	9.000
15.940	14.000
15.950	8.000
15.960	11.000
15.970	2.000
15.980	7.000
15.990	4.000
16.000	8.000
16.010	12.000
16.020	9.000
16.030	13.000
16.040	9.000
16.050	14.000
16.060	9.000
16.070	11.000
16.080	11.000
16.090	8.000
16.100	10.000
16.110	3.000
16.120	13.000
16.130	9.000
16.140	12.000
16.150	10.000
16.160	16.000
16.170	13.000
16.180	11.000
16.190	7.000
16.200	11.000
16.210	11.000
16.220	13.000
16.230	8.000
16.240	6.000
16.250	8.000
16.260	10.000
16.270	5.000
16.280	8.000
16.290	9.000
16.300	7.000
16.310	11.000
16.320	7.000
16.330	12.000
16.340	10.000
16.350	9.000
16.360	12.000
16.370	10.000
16.380	7.000
16.390	11.000
16.400	13.000
16.410	11.000
16.420	8.000
16.430	6.000
16.440	3.000
16.450	10.000
16.460	10.000
16.470	7.000
16.480	11.000
16.490	11.000
16.500	7.000
16.510	12.000
16.520	12.000
16.530	12.000
16.540	10.000
16.550	10.000
16.560	18.000
16.570	4.000
16.580	16.000
16.590	5.000
16.600	10.000
16.610	12.000
16.620	14.000
16.630	12.000
16.640	8.000
16.650	10.000
16.660	6.000
16.670	7.000
16.680	7.000
16.690	10.000
16.700	11.000
16.710	11.000
16.720	8.000
16.730	8.000
16.740	9.000
16.750	7.000
16.760	10.000
16.770	9.000
16.780	8.000
16.790	9.000
16.800	11.000
16.810	13.000
16.820	10.000
16.830	3.000
16.840	7.000
16.850	13.000
16.860	9.000
16.870	6.000
16.880	8.000
16.890	16.000
16.900	16.000
16.910	11.000
16.920	6.000
16.930	9.000
16.940	13.000
16.950	7.000
16.960	11.000
16.970	3.000
16.980	7.000
16.990	8.000
17.000	7.000
17.010	8.000
17.020	15.000
17.030	12.000
17.040	9.000
17.050	8.000
17.060	14.000
17.070	9.000
17.080	7.000
17.090	6.000
17.100	6.000
17.110	5.000
17.120	8.000
17.130	8.000
17.140	10.000
17.150	6.000
17.160	8.000
17.170	5.000
17.180	10.000
17.190	10.000
17.200	5.000
17.210	17.000
17.220	11.000
17.230	9.000
17.240	17.000
17.250	3.000
17.260	7.000
17.270	5.000
17.280	7.000
17.290	11.000
17.300	11.000
17.310	13.000
17.320	7.000
17.330	12.000
17.340	6.000
17.350	14.000
17.360	7.000
17.370	13.000
17.380	9.000
17.390	12.000
17.400	6.000
17.410	7.000
17.420	10.000
17.430	14.000
17.440	5.000
17.450	8.000
17.460	12.000
17.470	13.000
17.480	6.000
17.490	8.000
17.500	5.000
17.510	6.000
17.520	4.000
17.530	7.000
17.540	7.000
17.550	12.000
17.560	12.000
17.570	6.000
17.580	11.000
17.590	8.000
17.600	6.000
17.610	14.000
17.620	12.000
17.630	14.000
17.640	9.000
17.650	8.000
17.660	12.000
17.670	8.000
17.680	10.000
17.690	12.000
17.700	13.000
17.710	6.000
17.720	11.000
17.730	8.000
17.740	8.000
17.750	8.000
17.760	11.000
17.770	9.000
17.780	4.000
17.790	7.000
17.800	5.000
17.810	4.000
17.820	9.000
17.830	14.000
17.840	10.000
17.850	12.000
17.860	13.000
17.870	10.000
17.880	15.000
17.890	9.000
17.900	11.000
17.910	7.000
17.920	8.000
17.930	11.000
17.940	12.000
17.950	10.000
17.960	4.000
17.970	7.000
17.980	11.000
17.990	6.000
18.000	6.000
18.010	9.000
18.020	8.000
18.030	12.000
18.040	6.000
18.050	7.000
18.060	12.000
18.070	8.000
18.080	2.000
18.090	7.000
18.100	9.000
18.110	6.000
18.120	5.000
18.130	7.000
18.140	5.000
18.150	11.000
18.160	5.000
18.170	11.000
18.180	13.000
18.190	9.000
18.200	8.000
18.210	9.000
18.220	7.000
18.230	13.000
18.240	6.000
18.250	7.000
18.260	10.000
18.270	8.000
18.280	6.000
18.290	7.000
18.300	10.000
18.310	8.000
18.320	11.000
18.330	6.000
18.340	10.000
18.350	8.000
18.360	7.000
18.370	12.000
18.380	7.000
18.390	7.000
18.400	10.000
18.410	8.000
18.420	11.000
18.430	9.000
18.440	10.000
18.450	8.000
18.460	7.000
18.470	12.000
18.480	12.000
18.490	9.000
18.500	8.000
18.510	9.000
18.520	8.000
18.530	10.000
18.540	5.000
18.550	9.000
18.560	15.000
18.570	11.000
18.580	15.000
18.590	11.000
18.600	10.000
18.610	10.000
18.620	9.000
18.630	6.000
18.640	11.000
18.650	7.000
18.660	6.000
18.670	7.000
18.680	3.000
18.690	14.000
18.700	10.000
18.710	12.000
18.720	7.000
18.730	13.000
18.740	15.000
18.750	9.000
18.760	8.000
18.770	5.000
18.780	5.000
18.790	7.000
18.800	9.000
18.810	5.000
