# Silicon Calculated X-ray Diffraction
# 2theta  Intensity
1.00000	0.00000
1.01000	0.16240
1.02000	0.15931
1.03000	0.15630
1.04000	0.15338
1.05000	0.15054
1.06000	0.14779
1.07000	0.14510
1.08000	0.14250
1.09000	0.13996
1.10000	0.13749
1.11000	0.13509
1.12000	0.13275
1.13000	0.13047
1.14000	0.12825
1.15000	0.12609
1.16000	0.12398
1.17000	0.12193
1.18000	0.11993
1.19000	0.11798
1.20000	0.11608
1.21000	0.11422
1.22000	0.11241
1.23000	0.11064
1.24000	0.10891
1.25000	0.10723
1.26000	0.10558
1.27000	0.10397
1.28000	0.10240
1.29000	0.10087
1.30000	0.09937
1.31000	0.09791
1.32000	0.09647
1.33000	0.09507
1.34000	0.09370
1.35000	0.09237
1.36000	0.09105
1.37000	0.08977
1.38000	0.08852
1.39000	0.08729
1.40000	0.08609
1.41000	0.08491
1.42000	0.08376
1.43000	0.08263
1.44000	0.08153
1.45000	0.08044
1.46000	0.07938
1.47000	0.07834
1.48000	0.07733
1.49000	0.07633
1.50000	0.07535
1.51000	0.07439
1.52000	0.07345
1.53000	0.07253
1.54000	0.07162
1.55000	0.07073
1.56000	0.06986
1.57000	0.06901
1.58000	0.06817
1.59000	0.06735
1.60000	0.06654
1.61000	0.06575
1.62000	0.06497
1.63000	0.06421
1.64000	0.06346
1.65000	0.06272
1.66000	0.06199
1.67000	0.06128
1.68000	0.06059
1.69000	0.05990
1.70000	0.05922
1.71000	0.05856
1.72000	0.05791
1.73000	0.05727
1.74000	0.05664
1.75000	0.05602
1.76000	0.05541
1.77000	0.05482
1.78000	0.05423
1.79000	0.05365
1.80000	0.05308
1.81000	0.05252
1.82000	0.05197
1.83000	0.05143
1.84000	0.05090
1.85000	0.05037
1.86000	0.04985
1.87000	0.04935
1.88000	0.04885
1.89000	0.04835
1.90000	0.04787
1.91000	0.04739
1.92000	0.04692
1.93000	0.04646
1.94000	0.04600
1.95000	0.04556
1.96000	0.04511
1.97000	0.04468
1.98000	0.04425
1.99000	0.04383
2.00000	0.04341
2.01000	0.04300
2.02000	0.04260
2.03000	0.04220
2.04000	0.04181
2.05000	0.04142
2.06000	0.04104
2.07000	0.04066
2.08000	0.04029
2.09000	0.03993
2.10000	0.03957
2.11000	0.03921
2.12000	0.03886
2.13000	0.03851
2.14000	0.03817
2.15000	0.03784
2.16000	0.03751
2.17000	0.03718
2.18000	0.03686
2.19000	0.03654
2.20000	0.03623
2.21000	0.03592
2.22000	0.03561
2.23000	0.03531
2.24000	0.03501
2.25000	0.03472
2.26000	0.03443
2.27000	0.03414
2.28000	0.03386
2.29000	0.03358
2.30000	0.03331
2.31000	0.03303
2.32000	0.03277
2.33000	0.03250
2.34000	0.03224
2.35000	0.03198
2.36000	0.03173
2.37000	0.03147
2.38000	0.03123
2.39000	0.03098
2.40000	0.03074
2.41000	0.03050
2.42000	0.03026
2.43000	0.03003
2.44000	0.02980
2.45000	0.02957
2.46000	0.02934
2.47000	0.02912
2.48000	0.02890
2.49000	0.02868
2.50000	0.02847
2.51000	0.02825
2.52000	0.02804
2.53000	0.02784
2.54000	0.02763
2.55000	0.02743
2.56000	0.02723
2.57000	0.02703
2.58000	0.02683
2.59000	0.02664
2.60000	0.02645
2.61000	0.02626
2.62000	0.02607
2.63000	0.02589
2.64000	0.02570
2.65000	0.02552
2.66000	0.02534
2.67000	0.02517
2.68000	0.02499
2.69000	0.02482
2.70000	0.02465
2.71000	0.02448
2.72000	0.02431
2.73000	0.02414
2.74000	0.02398
2.75000	0.02382
2.76000	0.02366
2.77000	0.02350
2.78000	0.02334
2.79000	0.02319
2.80000	0.02303
2.81000	0.02288
2.82000	0.02273
2.83000	0.02258
2.84000	0.02243
2.85000	0.02229
2.86000	0.02214
2.87000	0.02200
2.88000	0.02186
2.89000	0.02172
2.90000	0.02158
2.91000	0.02144
2.92000	0.02130
2.93000	0.02117
2.94000	0.02104
2.95000	0.02090
2.96000	0.02077
2.97000	0.02064
2.98000	0.02052
2.99000	0.02039
3.00000	0.02026
3.01000	0.02014
3.02000	0.02002
3.03000	0.01989
3.04000	0.01977
3.05000	0.01965
3.06000	0.01953
3.07000	0.01942
3.08000	0.01930
3.09000	0.01919
3.10000	0.01907
3.11000	0.01896
3.12000	0.01885
3.13000	0.01874
3.14000	0.01863
3.15000	0.01852
3.16000	0.01841
3.17000	0.01830
3.18000	0.01820
3.19000	0.01809
3.20000	0.01799
3.21000	0.01789
3.22000	0.01778
3.23000	0.01768
3.24000	0.01758
3.25000	0.01748
3.26000	0.01738
3.27000	0.01729
3.28000	0.01719
3.29000	0.01709
3.30000	0.01700
3.31000	0.01691
3.32000	0.01681
3.33000	0.01672
3.34000	0.01663
3.35000	0.01654
3.36000	0.01645
3.37000	0.01636
3.38000	0.01627
3.39000	0.01618
3.40000	0.01610
3.41000	0.01601
3.42000	0.01592
3.43000	0.01584
3.44000	0.01576
3.45000	0.01567
3.46000	0.01559
3.47000	0.01551
3.48000	0.01543
3.49000	0.01535
3.50000	0.01527
3.51000	0.01519
3.52000	0.01511
3.53000	0.01503
3.54000	0.01495
3.55000	0.01488
3.56000	0.01480
3.57000	0.01473
3.58000	0.01465
3.59000	0.01458
3.60000	0.01450
3.61000	0.01443
3.62000	0.01436
3.63000	0.01429
3.64000	0.01422
3.65000	0.01414
3.66000	0.01407
3.67000	0.01401
3.68000	0.01394
3.69000	0.01387
3.70000	0.01380
3.71000	0.01373
3.72000	0.01367
3.73000	0.01360
3.74000	0.01353
3.75000	0.01347
3.76000	0.01340
3.77000	0.01334
3.78000	0.01328
3.79000	0.01321
3.80000	0.01315
3.81000	0.01309
3.82000	0.01303
3.83000	0.01297
3.84000	0.01290
3.85000	0.01284
3.86000	0.01278
3.87000	0.01272
3.88000	0.01267
3.89000	0.01261
3.90000	0.01255
3.91000	0.01249
3.92000	0.01243
3.93000	0.01238
3.94000	0.01232
3.95000	0.01226
3.96000	0.01221
3.97000	0.01215
3.98000	0.01210
3.99000	0.01204
4.00000	0.01199
4.01000	0.01194
4.02000	0.01188
4.03000	0.01183
4.04000	0.01178
4.05000	0.01173
4.06000	0.01168
4.07000	0.01162
4.08000	0.01157
4.09000	0.01152
4.10000	0.01147
4.11000	0.01142
4.12000	0.01137
4.13000	0.01132
4.14000	0.01128
4.15000	0.01123
4.16000	0.01118
4.17000	0.01113
4.18000	0.01108
4.19000	0.01104
4.20000	0.01099
4.21000	0.01094
4.22000	0.01090
4.23000	0.01085
4.24000	0.01081
4.25000	0.01076
4.26000	0.01072
4.27000	0.01067
4.28000	0.01063
4.29000	0.01058
4.30000	0.01054
4.31000	0.01050
4.32000	0.01045
4.33000	0.01041
4.34000	0.01037
4.35000	0.01033
4.36000	0.01028
4.37000	0.01024
4.38000	0.01020
4.39000	0.01016
4.40000	0.01012
4.41000	0.01008
4.42000	0.01004
4.43000	0.01000
4.44000	0.00996
4.45000	0.00992
4.46000	0.00988
4.47000	0.00984
4.48000	0.00980
4.49000	0.00976
4.50000	0.00972
4.51000	0.00969
4.52000	0.00965
4.53000	0.00961
4.54000	0.00957
4.55000	0.00954
4.56000	0.00950
4.57000	0.00946
4.58000	0.00943
4.59000	0.00939
4.60000	0.00936
4.61000	0.00932
4.62000	0.00928
4.63000	0.00925
4.64000	0.00921
4.65000	0.00918
4.66000	0.00914
4.67000	0.00911
4.68000	0.00908
4.69000	0.00904
4.70000	0.00901
4.71000	0.00898
4.72000	0.00894
4.73000	0.00891
4.74000	0.00888
4.75000	0.00884
4.76000	0.00881
4.77000	0.00878
4.78000	0.00875
4.79000	0.00872
4.80000	0.00868
4.81000	0.00865
4.82000	0.00862
4.83000	0.00859
4.84000	0.00856
4.85000	0.00853
4.86000	0.00850
4.87000	0.00847
4.88000	0.00844
4.89000	0.00841
4.90000	0.00838
4.91000	0.00835
4.92000	0.00832
4.93000	0.00829
4.94000	0.00826
4.95000	0.00823
4.96000	0.00820
4.97000	0.00817
4.98000	0.00814
4.99000	0.00812
5.00000	0.00809
5.01000	0.00806
5.02000	0.00803
5.03000	0.00801
5.04000	0.00798
5.05000	0.00795
5.06000	0.00792
5.07000	0.00790
5.08000	0.00787
5.09000	0.00784
5.10000	0.00782
5.11000	0.00779
5.12000	0.00776
5.13000	0.00774
5.14000	0.00771
5.15000	0.00769
5.16000	0.00766
5.17000	0.00763
5.18000	0.00761
5.19000	0.00758
5.20000	0.00756
5.21000	0.00753
5.22000	0.00751
5.23000	0.00748
5.24000	0.00746
5.25000	0.00744
5.26000	0.00741
5.27000	0.00739
5.28000	0.00736
5.29000	0.00734
5.30000	0.00732
5.31000	0.00729
5.32000	0.00727
5.33000	0.00725
5.34000	0.00722
5.35000	0.00720
5.36000	0.00718
5.37000	0.00715
5.38000	0.00713
5.39000	0.00711
5.40000	0.00709
5.41000	0.00706
5.42000	0.00704
5.43000	0.00702
5.44000	0.00700
5.45000	0.00698
5.46000	0.00695
5.47000	0.00693
5.48000	0.00691
5.49000	0.00689
5.50000	0.00687
5.51000	0.00685
5.52000	0.00683
5.53000	0.00680
5.54000	0.00678
5.55000	0.00676
5.56000	0.00674
5.57000	0.00672
5.58000	0.00670
5.59000	0.00668
5.60000	0.00666
5.61000	0.00664
5.62000	0.00662
5.63000	0.00660
5.64000	0.00658
5.65000	0.00656
5.66000	0.00654
5.67000	0.00652
5.68000	0.00650
5.69000	0.00648
5.70000	0.00646
5.71000	0.00645
5.72000	0.00643
5.73000	0.00641
5.74000	0.00639
5.75000	0.00637
5.76000	0.00635
5.77000	0.00633
5.78000	0.00632
5.79000	0.00630
5.80000	0.00628
5.81000	0.00626
5.82000	0.00624
5.83000	0.00622
5.84000	0.00621
5.85000	0.00619
5.86000	0.00617
5.87000	0.00615
5.88000	0.00614
5.89000	0.00612
5.90000	0.00610
5.91000	0.00608
5.92000	0.00607
5.93000	0.00605
5.94000	0.00603
5.95000	0.00602
5.96000	0.00600
5.97000	0.00598
5.98000	0.00597
5.99000	0.00595
6.00000	0.00593
6.01000	0.00592
6.02000	0.00590
6.03000	0.00588
6.04000	0.00587
6.05000	0.00585
6.06000	0.00583
6.07000	0.00582
6.08000	0.00580
6.09000	0.00579
6.10000	0.00577
6.11000	0.00576
6.12000	0.00574
6.13000	0.00572
6.14000	0.00571
6.15000	0.00569
6.16000	0.00568
6.17000	0.00566
6.18000	0.00565
6.19000	0.00563
6.20000	0.00562
6.21000	0.00560
6.22000	0.00559
6.23000	0.00557
6.24000	0.00556
6.25000	0.00554
6.26000	0.00553
6.27000	0.00552
6.28000	0.00550
6.29000	0.00549
6.30000	0.00547
6.31000	0.00546
6.32000	0.00544
6.33000	0.00543
6.34000	0.00542
6.35000	0.00540
6.36000	0.00539
6.37000	0.00537
6.38000	0.00536
6.39000	0.00535
6.40000	0.00533
6.41000	0.00532
6.42000	0.00531
6.43000	0.00529
6.44000	0.00528
6.45000	0.00527
6.46000	0.00525
6.47000	0.00524
6.48000	0.00523
6.49000	0.00521
6.50000	0.00520
6.51000	0.00519
6.52000	0.00517
6.53000	0.00516
6.54000	0.00515
6.55000	0.00513
6.56000	0.00512
6.57000	0.00511
6.58000	0.00510
6.59000	0.00508
6.60000	0.00507
6.61000	0.00506
6.62000	0.00505
6.63000	0.00503
6.64000	0.00502
6.65000	0.00501
6.66000	0.00500
6.67000	0.00499
6.68000	0.00497
6.69000	0.00496
6.70000	0.00495
6.71000	0.00494
6.72000	0.00493
6.73000	0.00491
6.74000	0.00490
6.75000	0.00489
6.76000	0.00488
6.77000	0.00487
6.78000	0.00486
6.79000	0.00484
6.80000	0.00483
6.81000	0.00482
6.82000	0.00481
6.83000	0.00480
6.84000	0.00479
6.85000	0.00478
6.86000	0.00477
6.87000	0.00475
6.88000	0.00474
6.89000	0.00473
6.90000	0.00472
6.91000	0.00471
6.92000	0.00470
6.93000	0.00469
6.94000	0.00468
6.95000	0.00467
6.96000	0.00466
6.97000	0.00465
6.98000	0.00463
6.99000	0.00462
7.00000	0.00461
7.01000	0.00460
7.02000	0.00459
7.03000	0.00458
7.04000	0.00457
7.05000	0.00456
7.06000	0.00455
7.07000	0.00454
7.08000	0.00453
7.09000	0.00452
7.10000	0.00451
7.11000	0.00450
7.12000	0.00449
7.13000	0.00448
7.14000	0.00447
7.15000	0.00446
7.16000	0.00445
7.17000	0.00444
7.18000	0.00443
7.19000	0.00442
7.20000	0.00441
7.21000	0.00440
7.22000	0.00439
7.23000	0.00438
7.24000	0.00437
7.25000	0.00436
7.26000	0.00435
7.27000	0.00435
7.28000	0.00434
7.29000	0.00433
7.30000	0.00432
7.31000	0.00431
7.32000	0.00430
7.33000	0.00429
7.34000	0.00428
7.35000	0.00427
7.36000	0.00426
7.37000	0.00425
7.38000	0.00424
7.39000	0.00424
7.40000	0.00423
7.41000	0.00422
7.42000	0.00421
7.43000	0.00420
7.44000	0.00419
7.45000	0.00418
7.46000	0.00417
7.47000	0.00416
7.48000	0.00416
7.49000	0.00415
7.50000	0.00414
7.51000	0.00413
7.52000	0.00412
7.53000	0.00411
7.54000	0.00411
7.55000	0.00410
7.56000	0.00409
7.57000	0.00408
7.58000	0.00407
7.59000	0.00406
7.60000	0.00405
7.61000	0.00405
7.62000	0.00404
7.63000	0.00403
7.64000	0.00402
7.65000	0.00401
7.66000	0.00401
7.67000	0.00400
7.68000	0.00399
7.69000	0.00398
7.70000	0.00397
7.71000	0.00397
7.72000	0.00396
7.73000	0.00395
7.74000	0.00394
7.75000	0.00393
7.76000	0.00393
7.77000	0.00392
7.78000	0.00391
7.79000	0.00390
7.80000	0.00390
7.81000	0.00389
7.82000	0.00388
7.83000	0.00387
7.84000	0.00387
7.85000	0.00386
7.86000	0.00385
7.87000	0.00384
7.88000	0.00384
7.89000	0.00383
7.90000	0.00382
7.91000	0.00381
7.92000	0.00381
7.93000	0.00380
7.94000	0.00379
7.95000	0.00378
7.96000	0.00378
7.97000	0.00377
7.98000	0.00376
7.99000	0.00376
8.00000	0.00375
8.01000	0.00374
8.02000	0.00373
8.03000	0.00373
8.04000	0.00372
8.05000	0.00371
8.06000	0.00371
8.07000	0.00370
8.08000	0.00369
8.09000	0.00369
8.10000	0.00368
8.11000	0.00367
8.12000	0.00367
8.13000	0.00366
8.14000	0.00365
8.15000	0.00365
8.16000	0.00364
8.17000	0.00363
8.18000	0.00363
8.19000	0.00362
8.20000	0.00361
8.21000	0.00361
8.22000	0.00360
8.23000	0.00359
8.24000	0.00359
8.25000	0.00358
8.26000	0.00357
8.27000	0.00357
8.28000	0.00356
8.29000	0.00355
8.30000	0.00355
8.31000	0.00354
8.32000	0.00353
8.33000	0.00353
8.34000	0.00352
8.35000	0.00352
8.36000	0.00351
8.37000	0.00350
8.38000	0.00350
8.39000	0.00349
8.40000	0.00349
8.41000	0.00348
8.42000	0.00347
8.43000	0.00347
8.44000	0.00346
8.45000	0.00345
8.46000	0.00345
8.47000	0.00344
8.48000	0.00344
8.49000	0.00343
8.50000	0.00342
8.51000	0.00342
8.52000	0.00341
8.53000	0.00341
8.54000	0.00340
8.55000	0.00340
8.56000	0.00339
8.57000	0.00338
8.58000	0.00338
8.59000	0.00337
8.60000	0.00337
8.61000	0.00336
8.62000	0.00336
8.63000	0.00335
8.64000	0.00334
8.65000	0.00334
8.66000	0.00333
8.67000	0.00333
8.68000	0.00332
8.69000	0.00332
8.70000	0.00331
8.71000	0.00330
8.72000	0.00330
8.73000	0.00329
8.74000	0.00329
8.75000	0.00328
8.76000	0.00328
8.77000	0.00327
8.78000	0.00327
8.79000	0.00326
8.80000	0.00326
8.81000	0.00325
8.82000	0.00325
8.83000	0.00324
8.84000	0.00323
8.85000	0.00323
8.86000	0.00322
8.87000	0.00322
8.88000	0.00321
8.89000	0.00321
8.90000	0.00320
8.91000	0.00320
8.92000	0.00319
8.93000	0.00319
8.94000	0.00318
8.95000	0.00318
8.96000	0.00317
8.97000	0.00317
8.98000	0.00316
8.99000	0.00316
9.00000	0.00315
9.01000	0.00315
9.02000	0.00314
9.03000	0.00314
9.04000	0.00313
9.05000	0.00313
9.06000	0.00312
9.07000	0.00312
9.08000	0.00311
9.09000	0.00311
9.10000	0.00310
9.11000	0.00310
9.12000	0.00309
9.13000	0.00309
9.14000	0.00308
9.15000	0.00308
9.16000	0.00308
9.17000	0.00307
9.18000	0.00307
9.19000	0.00306
9.20000	0.00306
9.21000	0.00305
9.22000	0.00305
9.23000	0.00304
9.24000	0.00304
9.25000	0.00303
9.26000	0.00303
9.27000	0.00302
9.28000	0.00302
9.29000	0.00301
9.30000	0.00301
9.31000	0.00301
9.32000	0.00300
9.33000	0.00300
9.34000	0.00299
9.35000	0.00299
9.36000	0.00298
9.37000	0.00298
9.38000	0.00297
9.39000	0.00297
9.40000	0.00297
9.41000	0.00296
9.42000	0.00296
9.43000	0.00295
9.44000	0.00295
9.45000	0.00294
9.46000	0.00294
9.47000	0.00294
9.48000	0.00293
9.49000	0.00293
9.50000	0.00292
9.51000	0.00292
9.52000	0.00291
9.53000	0.00291
9.54000	0.00291
9.55000	0.00290
9.56000	0.00290
9.57000	0.00289
9.58000	0.00289
9.59000	0.00289
9.60000	0.00288
9.61000	0.00288
9.62000	0.00287
9.63000	0.00287
9.64000	0.00286
9.65000	0.00286
9.66000	0.00286
9.67000	0.00285
9.68000	0.00285
9.69000	0.00284
9.70000	0.00284
9.71000	0.00284
9.72000	0.00283
9.73000	0.00283
9.74000	0.00283
9.75000	0.00282
9.76000	0.00282
9.77000	0.00281
9.78000	0.00281
9.79000	0.00281
9.80000	0.00280
9.81000	0.00280
9.82000	0.00279
9.83000	0.00279
9.84000	0.00279
9.85000	0.00278
9.86000	0.00278
9.87000	0.00278
9.88000	0.00277
9.89000	0.00277
9.90000	0.00276
9.91000	0.00276
9.92000	0.00276
9.93000	0.00275
9.94000	0.00275
9.95000	0.00275
9.96000	0.00274
9.97000	0.00274
9.98000	0.00273
9.99000	0.00273
10.00000	0.00273
10.01000	0.00272
10.02000	0.00272
10.03000	0.00272
10.04000	0.00271
10.05000	0.00271
10.06000	0.00271
10.07000	0.00270
10.08000	0.00270
10.09000	0.00270
10.10000	0.00269
10.11000	0.00269
10.12000	0.00268
10.13000	0.00268
10.14000	0.00268
10.15000	0.00267
10.16000	0.00267
10.17000	0.00267
10.18000	0.00266
10.19000	0.00266
10.20000	0.00266
10.21000	0.00265
10.22000	0.00265
10.23000	0.00265
10.24000	0.00264
10.25000	0.00264
10.26000	0.00264
10.27000	0.00263
10.28000	0.00263
10.29000	0.00263
10.30000	0.00262
10.31000	0.00262
10.32000	0.00262
10.33000	0.00261
10.34000	0.00261
10.35000	0.00261
10.36000	0.00260
10.37000	0.00260
10.38000	0.00260
10.39000	0.00259
10.40000	0.00259
10.41000	0.00259
10.42000	0.00258
10.43000	0.00258
10.44000	0.00258
10.45000	0.00258
10.46000	0.00257
10.47000	0.00257
10.48000	0.00257
10.49000	0.00256
10.50000	0.00256
10.51000	0.00256
10.52000	0.00255
10.53000	0.00255
10.54000	0.00255
10.55000	0.00254
10.56000	0.00254
10.57000	0.00254
10.58000	0.00254
10.59000	0.00253
10.60000	0.00253
10.61000	0.00253
10.62000	0.00252
10.63000	0.00252
10.64000	0.00252
10.65000	0.00251
10.66000	0.00251
10.67000	0.00251
10.68000	0.00251
10.69000	0.00250
10.70000	0.00250
10.71000	0.00250
10.72000	0.00249
10.73000	0.00249
10.74000	0.00249
10.75000	0.00249
10.76000	0.00248
10.77000	0.00248
10.78000	0.00248
10.79000	0.00247
10.80000	0.00247
10.81000	0.00247
10.82000	0.00247
10.83000	0.00246
10.84000	0.00246
10.85000	0.00246
10.86000	0.00245
10.87000	0.00245
10.88000	0.00245
10.89000	0.00245
10.90000	0.00244
10.91000	0.00244
10.92000	0.00244
10.93000	0.00243
10.94000	0.00243
10.95000	0.00243
10.96000	0.00243
10.97000	0.00242
10.98000	0.00242
10.99000	0.00242
11.00000	0.00242
11.01000	0.00241
11.02000	0.00241
11.03000	0.00241
11.04000	0.00241
11.05000	0.00240
11.06000	0.00240
11.07000	0.00240
11.08000	0.00239
11.09000	0.00239
11.10000	0.00239
11.11000	0.00239
11.12000	0.00238
11.13000	0.00238
11.14000	0.00238
11.15000	0.00238
11.16000	0.00237
11.17000	0.00237
11.18000	0.00237
11.19000	0.00237
11.20000	0.00236
11.21000	0.00236
11.22000	0.00236
11.23000	0.00236
11.24000	0.00235
11.25000	0.00235
11.26000	0.00235
11.27000	0.00235
11.28000	0.00234
11.29000	0.00234
11.30000	0.00234
11.31000	0.00234
11.32000	0.00233
11.33000	0.00233
11.34000	0.00233
11.35000	0.00233
11.36000	0.00232
11.37000	0.00232
11.38000	0.00232
11.39000	0.00232
11.40000	0.00232
11.41000	0.00231
11.42000	0.00231
11.43000	0.00231
11.44000	0.00231
11.45000	0.00230
11.46000	0.00230
11.47000	0.00230
11.48000	0.00230
11.49000	0.00229
11.50000	0.00229
11.51000	0.00229
11.52000	0.00229
11.53000	0.00229
11.54000	0.00228
11.55000	0.00228
11.56000	0.00228
11.57000	0.00228
11.58000	0.00227
11.59000	0.00227
11.60000	0.00227
11.61000	0.00227
11.62000	0.00226
11.63000	0.00226
11.64000	0.00226
11.65000	0.00226
11.66000	0.00226
11.67000	0.00225
11.68000	0.00225
11.69000	0.00225
11.70000	0.00225
11.71000	0.00225
11.72000	0.00224
11.73000	0.00224
11.74000	0.00224
11.75000	0.00224
11.76000	0.00223
11.77000	0.00223
11.78000	0.00223
11.79000	0.00223
11.80000	0.00223
11.81000	0.00222
11.82000	0.00222
11.83000	0.00222
11.84000	0.00222
11.85000	0.00222
11.86000	0.00221
11.87000	0.00221
11.88000	0.00221
11.89000	0.00221
11.90000	0.00221
11.91000	0.00220
11.92000	0.00220
11.93000	0.00220
11.94000	0.00220
11.95000	0.00220
11.96000	0.00219
11.97000	0.00219
11.98000	0.00219
11.99000	0.00219
12.00000	0.00219
12.01000	0.00218
12.02000	0.00218
12.03000	0.00218
12.04000	0.00218
12.05000	0.00218
12.06000	0.00217
12.07000	0.00217
12.08000	0.00217
12.09000	0.00217
12.10000	0.00217
12.11000	0.00216
12.12000	0.00216
12.13000	0.00216
12.14000	0.00216
12.15000	0.00216
12.16000	0.00215
12.17000	0.00215
12.18000	0.00215
12.19000	0.00215
12.20000	0.00215
12.21000	0.00215
12.22000	0.00214
12.23000	0.00214
12.24000	0.00214
12.25000	0.00214
12.26000	0.00214
12.27000	0.00213
12.28000	0.00213
12.29000	0.00213
12.30000	0.00213
12.31000	0.00213
12.32000	0.00212
12.33000	0.00212
12.34000	0.00212
12.35000	0.00212
12.36000	0.00212
12.37000	0.00212
12.38000	0.00211
12.39000	0.00211
12.40000	0.00211
12.41000	0.00211
12.42000	0.00211
12.43000	0.00211
12.44000	0.00210
12.45000	0.00210
12.46000	0.00210
12.47000	0.00210
12.48000	0.00210
12.49000	0.00210
12.50000	0.00209
12.51000	0.00209
12.52000	0.00209
12.53000	0.00209
12.54000	0.00209
12.55000	0.00209
12.56000	0.00208
